File: Raman_Spectroscopy_GAN/input/clinical_sample/s10/s10_1_785M-T_Rlab.csv
a,b
320, -36.0497
325, 17.6567
330, -10.2094
335, 115.66
340, 96.1019
345, 23.5806
350, 12.8321
355, 3.8302
360, 20.917
365, 4.85854
370, 44.1956
375, 105.565
380, 23.0147
385, -18.3861
390, -20.5008
395, -32.9581
400, -5.48003
405, -22.2302
410, 160.041
415, 492.638
420, 709.214
425, 677.371
430, 457.285
435, 98.226
440, -27.0632
445, 68.5318
450, 264.389
455, 264.748
460, 121.257
465, -27.9416
470, -7.07557
475, -10.0185
480, -16.3431
485, 58.514
490, 141.021
495, -13.9432
500, -37.9257
505, -11.6925
510, 10.6357
515, 183.276
520, 181.858
525, 62.1716
530, 116.914
535, 118.784
540, 88.5735
545, 216.105
550, 242.087
555, 102.408
560, 14.8139
565, -11.067
570, -18.5967
575, 2.16507
580, -28.1095
585, 49.5683
590, -31.0845
595, 65.5608
600, 2.70619
605, -17.1126
610, -10.3842
615, -18.6447
620, 67.5638
625, 19.1236
630, 3.28621
635, 3.31699
640, 15.9857
645, 41.9315
650, 49.65
655, -7.72871
660, 14.2191
665, 84.9777
670, 55.1897
675, 11.5999
680, -6.82306
685, 58.7569
690, 52.1005
695, 63.2162
700, -16.7381
705, 43.658
710, 18.926
715, -1.11754
720, 49.5521
725, -10.5342
730, 26.8151
735, -7.59357
740, 15.4417
745, 2.5286
750, 37.598
755, 54.6699
760, -30.7021
765, 7.05625
770, 102.796
775, 3.79131
780, 28.1585
785, 40.6005
790, 70.292
795, 0.891513
800, 5.28327
805, 71.3692
810, 19.1755
815, -14.2523
820, 36.5139
825, 14.358
830, 8.0294
835, -10.6101
840, 50.1177
845, 7.46506
850, 38.2771
855, -32.9393
860, 40.9137
865, 15.7671
870, 1.14396
875, 26.2691
880, -7.87587
885, 40.235
890, 10.9218
895, 8.62037
900, -8.3024
905, 39.5865
910, 1.74258
915, 45.8752
920, -0.810467
925, 59.7941
930, 84.2296
935, -14.2608
940, 65.1585
945, -0.0822884
950, 30.7757
955, 10.9731
960, 53.3398
965, -20.363
970, 34.027
975, -11.7756
980, 10.2889
985, 66.3503
990, 22.0524
995, 29.2611
1000, -0.723612
1005, 7.39973
1010, 12.4822
1015, 8.89888
1020, 42.6286
1025, 6.08125
1030, 10.8575
1035, -0.321492
1040, 73.0843
1045, -8.83431
1050, -50.8651
1055, 23.4464
1060, -16.2414
1065, 90.5242
1070, 243.373
1075, 353.027
1080, 263.736
1085, 77.5946
1090, 48.7808
1095, -6.72784
1100, -19.9729
1105, -12.3809
1110, 67.1089
1115, -28.15
1120, 36.4486
1125, 65.1705
1130, 18.5417
1135, 9.45997
1140, 41.7549
1145, 14.425
1150, 49.7699
1155, -25.7496
1160, 59.7459
1165, 24.1639
1170, -18.7226
1175, 7.81413
1180, 63.5286
1185, 28.5678
1190, -18.1306
1195, 39.8884
1200, 9.01448
1205, 82.7575
1210, 82.4112
1215, 15.1154
1220, 4.57705
1225, 35.3749
1230, -35.9841
1235, 12.6297
1240, 13.0718
1245, 70.3574
1250, 172.729
1255, 237.421
1260, 133.731
1265, 86.2983
1270, 71.3903
1275, 1.38565
1280, -7.12161
1285, 15.7222
1290, 29.2126
1295, -16.1596
1300, -18.5275
1305, -10.8093
1310, 15.5731
1315, -16.024
1320, 20.0814
1325, 48.9363
1330, 14.1967
1335, 18.8134
1340, -2.65898
1345, 0.0490283
1350, 9.42692
1355, 6.77122
1360, 36.8804
1365, 21.0043
1370, 21.9098
1375, -8.16504
1380, 28.2211
1385, 1.64531
1390, 8.3561
1395, 57.8364
1400, 21.7952
1405, -7.85296
1410, -1.55657
1415, 14.2033
1420, -13.3695
1425, 34.0955
1430, 20.6666
1435, -7.52229
1440, 28.8672
1445, -5.72407
1450, 38.7119
1455, 26.6428
1460, 31.15
1465, 15.6212
1470, 23.0577
1475, 42.9502
1480, 4.5449
1485, 13.903
1490, 32.3377
1495, 5.35808
1500, 23.3932
1505, 49.8891
1510, -5.12217
1515, 8.39409
1520, 29.3278
1525, 4.87857
1530, 46.1222
1535, -0.0556299
1540, 0.480173
1545, -3.81458
1550, 14.5456
1555, -10.8774
1560, 2.5026
1565, -2.27388
1570, 67.8408
1575, 269.266
1580, 340.149
1585, 163.667
1590, -11.379
1595, -12.2249
1600, -7.82933
1605, 21.9749
1610, 11.3545
1615, 20.9607
1620, 4.33688
1625, -11.7357
1630, -9.7442
1635, 33.0184
1640, 14.7105
1645, 2.80049
1650, -8.42764