File: Raman_Spectroscopy_GAN/input/raw/streptavidin-negative/Streptavidin1ug_3_785M-T_Rlab.txt
a,b
320, -1.3889
325, -0.180123
330, 23.5499
335, -2.67511
340, 45.68
345, 0.655207
350, 32.273
355, 33.7995
360, 12.626
365, -5.48119
370, 82.8209
375, 29.3678
380, 14.0594
385, 57.5665
390, -6.73881
395, -0.970178
400, 73.4055
405, 106.889
410, 179.861
415, 290.23
420, 361.309
425, 382.471
430, 346.026
435, 156.977
440, 91.4148
445, -0.396123
450, 78.2018
455, 53.3383
460, 119.696
465, 43.0263
470, -9.99213
475, 23.9824
480, -3.23562
485, 43.1119
490, 12.8726
495, 80.4622
500, -0.640748
505, -10.3422
510, 127.323
515, 140.113
520, 231.026
525, 238.703
530, 225.172
535, 134.479
540, 60.5037
545, 109.965
550, 69.455
555, 81.1859
560, 39.9628
565, 24.6513
570, -6.67537
575, 10.7187
580, 37.8696
585, -3.66101
590, 19.2282
595, 5.8015
600, 37.4164
605, 22.0641
610, 9.71031
615, 5.34759
620, 9.95323
625, 18.9025
630, 31.5158
635, 53.6574
640, 56.3924
645, 33.6412
650, 23.0455
655, -12.7842
660, 23.9927
665, 40.8114
670, 13.8321
675, 3.99071
680, 25.283
685, -4.99946
690, 37.8238
695, 28.3492
700, 21.8659
705, 34.074
710, 12.8138
715, 57.0413
720, 35.1982
725, -6.21408
730, 23.0589
735, -0.982787
740, 22.8679
745, -9.36715
750, 18.5754
755, 20.1586
760, 61.8065
765, 20.5778
770, 25.4269
775, 34.0176
780, 61.1806
785, 18.8647
790, 27.7508
795, 26.6922
800, -6.68995
805, 21.0846
810, 30.8995
815, 49.5845
820, 53.3785
825, 2.56912
830, 40.15
835, 12.7098
840, -9.85239
845, 24.4653
850, -3.70644
855, 36.8373
860, 51.877
865, 1.68868
870, 12.053
875, 59.2105
880, 123.983
885, 0.339638
890, 14.1053
895, 20.7236
900, 6.56676
905, 15.0589
910, 37.7529
915, 22.4949
920, 35.7088
925, 56.6014
930, 13.0997
935, 2.24124
940, 30.3268
945, 2.05929
950, 1.81993
955, 36.3655
960, 51.771
965, 33.6237
970, 36.7572
975, -7.27019
980, 20.316
985, 55.599
990, 98.6597
995, 104.261
1000, 41.7573
1005, 0.994034
1010, 44.1505
1015, -14.27
1020, 42.6055
1025, 14.9651
1030, -8.49408
1035, 31.7393
1040, 66.7899
1045, -1.82048
1050, 2.09527
1055, 26.9304
1060, -3.80221
1065, -10.9027
1070, 49.7231
1075, 144.333
1080, 138.764
1085, 110.669
1090, 88.0271
1095, 5.20711
1100, 13.0753
1105, 16.0766
1110, 43.8605
1115, 10.0668
1120, -1.81844
1125, 35.3189
1130, 50.8203
1135, 32.7408
1140, 15.8663
1145, 34.6403
1150, 31.2289
1155, 9.93053
1160, 2.20424
1165, 41.6325
1170, -8.15444
1175, 31.5785
1180, 49.3365
1185, 16.194
1190, 0.554721
1195, 68.814
1200, 21.9964
1205, 95.309
1210, 65.7829
1215, 6.54904
1220, 3.65862
1225, 34.0022
1230, -15.4143
1235, 29.3836
1240, 19.5838
1245, 103.452
1250, 135.751
1255, 158.816
1260, 223.87
1265, 189.273
1270, 130.16
1275, 85.9793
1280, 13.7157
1285, 44.4587
1290, 36.1393
1295, 46.4889
1300, -3.28276
1305, 11.8347
1310, 5.14129
1315, 17.5263
1320, 17.7331
1325, 37.7171
1330, -0.232658
1335, 19.54
1340, -4.70466
1345, 8.53206
1350, 26.1003
1355, 20.8844
1360, 28.9351
1365, 22.5657
1370, 58.0345
1375, -4.40127
1380, 21.8775
1385, 45.965
1390, 13.4732
1395, 0.880626
1400, 59.3886
1405, 10.8974
1410, 7.12649
1415, 56.1773
1420, 24.026
1425, 19.5313
1430, 30.0187
1435, 22.2472
1440, 8.1596
1445, 24.6736
1450, 55.1809
1455, 8.68894
1460, 42.5751
1465, 12.759
1470, 17.2597
1475, 37.8976
1480, 63.7911
1485, 28.0619
1490, 31.2757
1495, 20.7359
1500, 4.74876
1505, 9.55159
1510, 0.631313
1515, 1.7886
1520, 9.26921
1525, 12.6072
1530, 32.0974
1535, 3.59167
1540, 34.9254
1545, 32.4933
1550, 34.7745
1555, 8.47948
1560, 40.2287
1565, -6.43768
1570, 4.30164
1575, 13.5403
1580, 92.926
1585, 109.917
1590, 103.162
1595, 5.66324
1600, 15.8423
1605, 47.18
1610, -2.98855
1615, 60.8491
1620, 71.8498
1625, 36.4168
1630, 31.7007
1635, 32.3592
1640, 5.29039
1645, 2.63236
1650, 8.76074