File: Raman_Spectroscopy_GAN/input/raw/streptavidin-negative/Streptavidin1ug_2_785M-T_Rlab.txt
a,b
320, 16.7221
325, 29.7301
330, -3.83305
335, 40.8919
340, 29.1958
345, 42.1564
350, 3.53287
355, 7.85905
360, -0.138768
365, 13.024
370, 57.3176
375, 40.0486
380, -6.11932
385, -4.26702
390, 13.4533
395, 2.76628
400, 36.5538
405, 0.807838
410, 70.633
415, 115.892
420, 213.001
425, 224.366
430, 149.924
435, 97.5397
440, 24.5748
445, 4.43991
450, 15.7391
455, 53.6452
460, -7.88827
465, 12.8886
470, -11.2255
475, 49.2735
480, -17.318
485, 32.7584
490, 87.3644
495, 18.5897
500, 0.609664
505, 59.4981
510, 135.857
515, 167.131
520, 274.25
525, 201.802
530, 223.599
535, 203.156
540, 195.119
545, 183.795
550, 134.455
555, 134.243
560, 56.3847
565, 21.8701
570, -7.3198
575, 18.8584
580, 11.0395
585, 21.2163
590, 5.39714
595, 16.5696
600, 23.4451
605, 13.9396
610, 13.9915
615, -0.420724
620, 16.987
625, 15.8976
630, 46.7844
635, 1.95212
640, 28.4351
645, 62.1483
650, 14.093
655, -9.1191
660, 57.3463
665, -2.92046
670, 18.011
675, 36.919
680, 15.2395
685, -8.29642
690, 61.4799
695, 14.6366
700, 45.878
705, 28.7348
710, 54.0098
715, 7.90366
720, 64.7169
725, -11.4855
730, 43.9137
735, 39.4415
740, 0.186208
745, -4.99441
750, 70.5732
755, 22.9874
760, 12.2433
765, 29.5941
770, 76.5034
775, 42.5316
780, 11.1014
785, 31.1148
790, 33.9023
795, 36.0657
800, 15.9845
805, 33.5544
810, -4.21287
815, 54.1511
820, 22.8976
825, 12.1251
830, 38.204
835, 25.8556
840, 3.2877
845, -9.06319
850, 35.5869
855, 11.987
860, 41.3335
865, 46.7333
870, 16.21
875, 10.0556
880, 49.3023
885, -2.90816
890, 40.2816
895, 39.8714
900, 33.6056
905, 24.6151
910, -12.0161
915, 72.1457
920, 13.4742
925, 44.3608
930, 26.6139
935, 15.9275
940, 26.7383
945, 25.0596
950, 33.2914
955, 5.77569
960, 18.6513
965, 42.9658
970, 23.7232
975, 5.86048
980, 53.5183
985, 117.655
990, 62.5097
995, 108.193
1000, 8.74748
1005, 13.9005
1010, 1.96861
1015, 38.3698
1020, -2.12771
1025, 45.9748
1030, 23.6717
1035, -1.10223
1040, 42.5394
1045, 5.07404
1050, -0.452902
1055, -3.41588
1060, 14.9853
1065, 44.8614
1070, 88.9225
1075, 141.678
1080, 179.852
1085, 129.564
1090, -6.92938
1095, -3.37417
1100, 2.28033
1105, 46.9683
1110, -0.200016
1115, 25.6096
1120, 61.7788
1125, 19.1591
1130, 2.28746
1135, 41.5625
1140, 67.7667
1145, 2.35002
1150, 29.7961
1155, 61.3069
1160, -10.9243
1165, 42.451
1170, 31.3658
1175, 27.2904
1180, 51.6143
1185, 10.7613
1190, -7.9342
1195, 54.9875
1200, 50.3466
1205, 77.3388
1210, 84.6156
1215, 11.9086
1220, -3.83383
1225, 7.3302
1230, 20.2431
1235, 35.7279
1240, 25.278
1245, 49.9377
1250, 70.9853
1255, 101.525
1260, 87.4345
1265, 32.6514
1270, 78.3679
1275, 91.0851
1280, 10.7044
1285, 31.2045
1290, -5.70767
1295, 42.7367
1300, 2.29235
1305, 27.7921
1310, 54.5952
1315, 31.5209
1320, 10.6123
1325, 54.7502
1330, 28.6191
1335, 12.3699
1340, 26.8062
1345, 46.2729
1350, 23.4558
1355, -0.435972
1360, 32.0468
1365, 73.6227
1370, 40.2817
1375, 68.1977
1380, 0.407833
1385, 36.7792
1390, 23.9061
1395, 8.21793
1400, 32.321
1405, -1.16254
1410, 7.33378
1415, 36.5207
1420, 12.5271
1425, 21.127
1430, 26.9724
1435, -3.55894
1440, 44.2013
1445, 38.6916
1450, 14.9866
1455, 19.1605
1460, 18.0727
1465, 44.3757
1470, 0.343851
1475, 36.4402
1480, 27.7955
1485, 11.5479
1490, -10.0271
1495, 51.4907
1500, 26.9969
1505, 10.9219
1510, 2.29554
1515, -2.80276
1520, 23.5759
1525, 17.8548
1530, 3.12082
1535, 9.26249
1540, -18.1518
1545, 23.2344
1550, 55.5282
1555, 73.2929
1560, 7.53074
1565, 37.2796
1570, -12.3285
1575, 51.643
1580, 46.2209
1585, 65.09
1590, 7.20477
1595, 52.5385
1600, -4.35098
1605, 14.5202
1610, 14.2117
1615, 59.0317
1620, 10.3503
1625, 58.6766
1630, 48.6403
1635, -10.7942
1640, 11.2455
1645, 44.0562
1650, 25.8475