File: Raman_Spectroscopy_GAN/input/raw/streptavidin-negative/Streptavidin1ug_1_785M-T_Rlab.txt
a,b
320, 0.329687
325, 15.7905
330, 53.2804
335, 49.7771
340, 35.0473
345, 50.0612
350, 32.9778
355, 7.46268
360, -6.03524
365, 26.7323
370, 7.30015
375, 28.1885
380, 5.77192
385, 19.2561
390, 25.7551
395, 20.1816
400, 1.38227
405, 16.1973
410, 4.96276
415, 65.3798
420, 112.985
425, 87.4916
430, 77.4118
435, 6.5027
440, 47.3117
445, 3.31341
450, 36.8636
455, 24.715
460, 33.2865
465, 47.0021
470, -19.7877
475, 5.29927
480, 36.5272
485, 0.879331
490, 29.0482
495, 24.0229
500, 3.57845
505, 0.14361
510, 36.3292
515, 63.1188
520, 75.8428
525, 106.242
530, 91.0997
535, 89.9002
540, 71.5101
545, 72.8953
550, 45.6489
555, 10.9128
560, 40.122
565, 9.18324
570, -6.21067
575, 5.12447
580, 6.01955
585, 24.1003
590, -1.85807
595, 29.0041
600, 15.0702
605, 13.6665
610, 13.6637
615, 13.7369
620, 1.54303
625, 10.7124
630, 58.1009
635, 25.4141
640, 60.3917
645, 5.51309
650, 26.8325
655, 21.8164
660, 51.5198
665, 43.4556
670, 77.8227
675, -4.10456
680, 45.0977
685, 29.5942
690, 27.9569
695, 37.9722
700, 51.2873
705, 59.1657
710, 9.5173
715, 32.9823
720, 44.7347
725, 65.3044
730, 5.85269
735, 43.3689
740, 2.59182
745, 18.3444
750, 39.5441
755, 50.741
760, -2.27633
765, 24.5962
770, 8.85622
775, 65.3933
780, 35.8978
785, 39.5024
790, 7.52277
795, 43.9612
800, 42.28
805, 39.283
810, 31.6485
815, 13.9979
820, 33.4784
825, 42.0336
830, 8.98073
835, -1.97744
840, 34.9487
845, 11.4216
850, 32.2302
855, 56.9673
860, 7.53633
865, 9.06196
870, 48.2989
875, 111.498
880, 13.2973
885, 50.0846
890, 46.9147
895, 15.3005
900, 8.9492
905, 4.50013
910, 0.640074
915, 54.8279
920, 13.6026
925, -5.80489
930, 41.8978
935, 30.8437
940, 65.1565
945, 21.9844
950, 58.6384
955, 13.9355
960, 45.966
965, 3.47817
970, 11.6564
975, 6.94391
980, 46.5113
985, 52.8846
990, 27.77
995, 11.4097
1000, -12.6128
1005, 0.685326
1010, 57.7558
1015, 16.9491
1020, 11.0232
1025, 17.4229
1030, 5.22038
1035, 32.2818
1040, 30.0754
1045, 39.8506
1050, 24.7902
1055, -5.20376
1060, 38.6727
1065, 33.7143
1070, 114.286
1075, 139.616
1080, 183.924
1085, 101.782
1090, 19.4428
1095, 50.0749
1100, 17.5128
1105, 2.95315
1110, 17.2324
1115, 48.1721
1120, 57.3444
1125, 83.0381
1130, 57.6777
1135, -5.08623
1140, 42.982
1145, 3.94965
1150, 24.8675
1155, 62.4358
1160, 21.8625
1165, 12.4278
1170, 61.7512
1175, -1.42262
1180, 2.39601
1185, 37.0949
1190, 43.7853
1195, 4.47553
1200, 49.4586
1205, 12.4329
1210, 39.1815
1215, -3.20331
1220, 31.9577
1225, 55.4427
1230, 0.404947
1235, 19.6327
1240, 53.6461
1245, 14.1746
1250, 8.19765
1255, 20.3971
1260, 63.437
1265, 68.3256
1270, 24.0143
1275, 42.5434
1280, -0.147385
1285, 47.4071
1290, -2.83847
1295, 37.3238
1300, 2.94078
1305, 23.336
1310, 14.9061
1315, 35.4968
1320, 3.96402
1325, 50.4161
1330, 19.76
1335, 41.763
1340, -8.82113
1345, 33.061
1350, 58.0217
1355, 53.9443
1360, 54.4857
1365, 69.0628
1370, 25.5631
1375, 66.4183
1380, 39.9431
1385, 29.5667
1390, 9.64583
1395, 53.6766
1400, 71.7595
1405, 13.1054
1410, 21.9624
1415, -1.54156
1420, 18.1154
1425, 33.3218
1430, 18.7362
1435, 13.5695
1440, 30.9807
1445, 74.5286
1450, 36.3482
1455, 30.7019
1460, 74.1095
1465, -2.84264
1470, 47.7101
1475, 3.11127
1480, 21.9175
1485, -0.28652
1490, 42.4681
1495, 12.7592
1500, 0.127936
1505, 18.8967
1510, -7.13407
1515, 32.4502
1520, 26.8363
1525, 45.682
1530, 33.9624
1535, 5.23273
1540, 3.31956
1545, -19.7795
1550, 34.2233
1555, 33.1836
1560, 40.748
1565, -21.6306
1570, 40.7614
1575, 69.4149
1580, 122.66
1585, 108.125
1590, 37.568
1595, 43.0987
1600, -0.450413
1605, 7.08047
1610, 12.5465
1615, 35.6429
1620, 33.0029
1625, -13.81
1630, 53.5975
1635, 41.9305
1640, 100.026
1645, 30.363
1650, -2.68232