File: Raman_Spectroscopy_GAN/input/clinical_sample/s7/s7_3_785M-T_Rlab.csv
a,b
320, -2.10631
325, 73.7926
330, 136.352
335, 139.353
340, 152.338
345, 97.9332
350, 49.2797
355, -3.42105
360, -4.62794
365, -10.3857
370, 15.5226
375, 8.94615
380, 64.0256
385, -3.04922
390, -13.5523
395, -21.4251
400, -37.8777
405, -13.1118
410, 77.6572
415, 328.379
420, 532.236
425, 578.08
430, 370.716
435, 55.5736
440, -18.3481
445, 29.4657
450, 190.553
455, 258.701
460, 107.068
465, -37.7798
470, -22.7024
475, 1.65707
480, -32.409
485, 57.9107
490, 99.3187
495, 11.8112
500, -39.2332
505, -20.9718
510, 48.2432
515, 216.3
520, 235.619
525, 74.9374
530, 31.4045
535, -5.57506
540, 146.535
545, 259.269
550, 187.144
555, 76.2194
560, 7.9796
565, 20.4253
570, -6.66636
575, -15.8938
580, -2.19315
585, 24.1625
590, -5.13474
595, 61.8689
600, 1.07382
605, 10.2834
610, -32.5068
615, -10.5443
620, 19.381
625, 13.2958
630, 41.0164
635, 124.319
640, 75.0912
645, 160.602
650, 103.142
655, 66.9591
660, -25.6135
665, -20.7121
670, 28.6152
675, -4.22621
680, 21.2461
685, 58.0839
690, 25.8408
695, -22.0996
700, 4.51058
705, 3.69722
710, 75.4868
715, 97.1272
720, 162.683
725, 188.671
730, 138.242
735, -13.835
740, 2.3833
745, -6.70628
750, 34.1628
755, 20.3139
760, 25.6705
765, -22.5319
770, 44.8521
775, -11.9756
780, 21.1982
785, -1.43851
790, 47.8726
795, 23.4301
800, 61.8297
805, 75.8187
810, 28.8937
815, 101.292
820, -26.3982
825, 0.97826
830, 43.4897
835, 23.6774
840, -3.70447
845, -4.25301
850, -9.58806
855, 8.64001
860, 119.065
865, 136.127
870, 93.5448
875, 13.5995
880, 12.849
885, 36.8075
890, -7.17628
895, 19.7707
900, -2.15637
905, -3.99642
910, 27.1904
915, 68.4573
920, -30.6494
925, 143.434
930, 128.773
935, 34.8371
940, 1.37295
945, 42.8565
950, 8.20233
955, 31.4596
960, 26.0045
965, -14.6715
970, 1.48575
975, -20.7136
980, 6.61405
985, 4.69358
990, 51.8675
995, -7.46596
1000, -4.89868
1005, 33.3618
1010, 5.48438
1015, 61.4406
1020, 27.0853
1025, 6.83166
1030, -0.731097
1035, 20.133
1040, 45.6541
1045, 5.54569
1050, -17.3738
1055, -21.8777
1060, 12.8883
1065, -5.91896
1070, 253.574
1075, 358.066
1080, 307.444
1085, 90.5365
1090, -22.6412
1095, 5.54456
1100, -19.2115
1105, 45.2063
1110, -5.83042
1115, -0.637447
1120, -11.4808
1125, 54.6688
1130, 39.002
1135, 52.9131
1140, 31.303
1145, 92.2849
1150, 14.2127
1155, 23.313
1160, -10.5012
1165, 15.1858
1170, 3.1931
1175, -24.8947
1180, 5.08994
1185, 50.0699
1190, 58.0694
1195, 4.56283
1200, 37.1419
1205, -8.49744
1210, 61.2868
1215, 42.9796
1220, 4.77375
1225, -27.0228
1230, -3.43626
1235, -7.98737
1240, 50.5557
1245, 82.4653
1250, 164.282
1255, 191.022
1260, 128.703
1265, 47.7678
1270, 68.4496
1275, 57.6456
1280, 3.06242
1285, 9.45718
1290, 33.1847
1295, 4.4489
1300, 3.99547
1305, 12.14
1310, 20.1384
1315, -1.63741
1320, 10.7761
1325, 52.3783
1330, -9.02157
1335, 14.551
1340, -20.513
1345, 44.8427
1350, -6.51419
1355, -1.39991
1360, 85.0946
1365, -3.85604
1370, 18.4139
1375, 7.73459
1380, 32.9216
1385, 11.8691
1390, 13.0748
1395, 33.2607
1400, -23.3214
1405, 41.6397
1410, 15.3915
1415, -14.7072
1420, -19.0588
1425, -14.8137
1430, 11.5169
1435, -6.73439
1440, 60.5435
1445, 29.382
1450, 54.3895
1455, 36.3975
1460, 30.4592
1465, 70.5671
1470, 110.429
1475, 57.0243
1480, 39.9964
1485, -8.10677
1490, 20.1555
1495, -24.9205
1500, 35.8958
1505, 6.75576
1510, 6.64559
1515, 20.5095
1520, 50.2169
1525, -9.76815
1530, 6.2618
1535, 40.8693
1540, -1.85802
1545, -6.31793
1550, -13.7898
1555, 53.6549
1560, -34.8985
1565, 38.2797
1570, -0.936806
1575, 147.945
1580, 256.848
1585, 24.1271
1590, -23.451
1595, -5.09305
1600, 18.1636
1605, 10.729
1610, 52.7451
1615, 28.5905
1620, 30.8405
1625, 23.5471
1630, 17.6527
1635, -0.0395006
1640, 32.375
1645, -10.8169
1650, -8.8909