File: Raman_Spectroscopy_GAN/input/clinical_sample/s7/s7_5_785M-T_Rlab.csv
a,b
320, -57.4964
325, -1.43402
330, 32.8495
335, 196.072
340, 361.807
345, 485.38
350, 507.258
355, 469.221
360, 335.101
365, 57.2105
370, -14.2342
375, 9.11913
380, -46.4531
385, 5.1557
390, -36.0027
395, 17.6112
400, -31.3401
405, 36.2914
410, 196.867
415, 287.449
420, 364.825
425, 325.555
430, 196.151
435, 14.5831
440, 25.1949
445, -7.1199
450, 75.9906
455, 110.43
460, 50.2869
465, -11.4535
470, -0.982355
475, 41.3313
480, -12.9587
485, 36.8793
490, 37.1235
495, -16.432
500, -17.6188
505, 12.4585
510, 178.866
515, 354.019
520, 328.233
525, 228.398
530, 18.6376
535, 32.1861
540, 22.1491
545, 38.4681
550, 15.9568
555, 44.6751
560, -14.4962
565, -5.90667
570, 19.5102
575, -3.65944
580, 23.845
585, 61.2854
590, -16.9852
595, 14.228
600, -6.47726
605, 23.1309
610, -39.3373
615, 2.29054
620, -0.391398
625, 79.3591
630, 133.587
635, 185.062
640, 160.665
645, 150.082
650, 28.5148
655, 40.2323
660, -4.39123
665, 0.356828
670, -12.9677
675, -4.78618
680, 3.48827
685, 46.1753
690, 29.4406
695, 7.40142
700, -35.4239
705, 42.5886
710, 159.554
715, 237.549
720, 193.239
725, 70.0993
730, 42.5176
735, 4.33687
740, -31.7502
745, -20.0422
750, 15.1125
755, 23.775
760, 0.173762
765, 8.09512
770, 38.351
775, 45.7457
780, -3.94695
785, 17.8858
790, -0.486275
795, 42.6371
800, 0.293054
805, 45.5423
810, 15.1108
815, 0.0442333
820, 13.2304
825, 11.2693
830, -3.10769
835, 50.165
840, 77.9455
845, 65.7043
850, -18.2265
855, 23.9298
860, 1.69631
865, 29.3171
870, 28.4976
875, -20.589
880, 47.5681
885, 13.4202
890, 29.3686
895, 22.3004
900, 2.15342
905, 9.32331
910, -0.534463
915, 17.496
920, 7.90424
925, 62.3903
930, 46.5935
935, -1.41132
940, 33.4104
945, -0.563043
950, 11.9564
955, 3.06957
960, 30.876
965, -8.45703
970, -17.6041
975, 16.1397
980, 3.55664
985, -10.3465
990, -9.97941
995, 25.7717
1000, 28.0878
1005, -3.06674
1010, 66.2866
1015, 111.804
1020, 58.1501
1025, 54.1506
1030, -2.27227
1035, 14.4347
1040, -6.72432
1045, -11.9646
1050, -61.2341
1055, -28.6102
1060, -27.8887
1065, 333.521
1070, 1117.42
1075, 1462.55
1080, 1029.12
1085, 329.948
1090, -67.4726
1095, -68.6941
1100, -13.0547
1105, -5.22282
1110, -7.27345
1115, 6.44384
1120, -7.71454
1125, 26.8228
1130, 34.3733
1135, 50.8314
1140, 97.9878
1145, 76.8481
1150, 0.601238
1155, 6.5641
1160, 22.7362
1165, -38.1873
1170, 4.95629
1175, 26.6626
1180, 108.12
1185, 80.4398
1190, 10.7462
1195, -22.4744
1200, -1.75971
1205, 54.7141
1210, 37.3548
1215, 17.1355
1220, 2.60595
1225, 9.77722
1230, -8.16837
1235, 1.35559
1240, 39.4213
1245, 0.100683
1250, 93.8252
1255, 61.0333
1260, 19.9934
1265, 71.8498
1270, 4.79437
1275, 29.6207
1280, 6.74093
1285, -14.7683
1290, 55.2691
1295, 7.90838
1300, 21.5844
1305, -6.4668
1310, 8.39304
1315, -0.948655
1320, 23.933
1325, 49.7723
1330, -4.17726
1335, -2.59646
1340, -15.2825
1345, 23.2902
1350, 12.1691
1355, 22.0192
1360, 56.5543
1365, 28.4147
1370, 25.7276
1375, 32.5941
1380, 0.339565
1385, 98.1677
1390, -12.5349
1395, 48.2837
1400, -0.479824
1405, -11.2585
1410, 44.2817
1415, -2.14421
1420, -11.4296
1425, 16.6927
1430, 21.4666
1435, 5.21454
1440, 49.2521
1445, 17.1367
1450, 51.1533
1455, 16.6081
1460, -3.75642
1465, -11.0765
1470, 69.782
1475, 81.2032
1480, 37.2443
1485, 2.29764
1490, -2.50386
1495, -2.36329
1500, -1.3193
1505, 53.3943
1510, -3.13838
1515, -11.5638
1520, -5.28382
1525, 10.3246
1530, 9.35681
1535, -8.21663
1540, -5.04007
1545, 0.274387
1550, -21.0315
1555, 35.3421
1560, -31.9156
1565, -24.4252
1570, 148.395
1575, 475.077
1580, 508.477
1585, 140.131
1590, -43.8471
1595, -48.1136
1600, 25.6751
1605, -8.29621
1610, 35.8313
1615, 15.4874
1620, 26.6997
1625, -16.8845
1630, -8.05271
1635, 35.3068
1640, 23.3882
1645, 12.6368
1650, 16.2384