File: Raman_Spectroscopy_GAN/input/clinical_sample/s2/s2_2_785M-T_Rlab.csv
a,b
320, 0.343438
325, 73.8427
330, 223.106
335, 237.696
340, 190.843
345, 123.146
350, 109.983
355, 78.0004
360, -18.795
365, 33.1915
370, 17.2887
375, -0.865748
380, 24.2082
385, 1.54404
390, 20.7766
395, -3.22132
400, 66.8989
405, 178.523
410, 329.992
415, 381.784
420, 419.177
425, 350.752
430, 259.522
435, 106.555
440, 16.1136
445, 45.1551
450, 19.8563
455, 37.9488
460, 21.6788
465, -10.431
470, -5.28336
475, 25.3877
480, 0.788667
485, -1.19931
490, 0.111517
495, -1.13604
500, 15.937
505, 188.332
510, 387.798
515, 615.102
520, 676.814
525, 533.477
530, 256.963
535, 29.8692
540, 50.0663
545, 6.92096
550, 28.3326
555, 32.361
560, 39.2124
565, -13.0298
570, -2.2829
575, -2.76256
580, 6.40816
585, 3.11345
590, 40.9843
595, 15.7133
600, -12.6288
605, 7.49321
610, 27.2236
615, -8.49239
620, 8.31732
625, 43.1797
630, 52.1945
635, 26.2335
640, 20.1369
645, 41.6091
650, 4.65884
655, 20.137
660, 20.8676
665, -10.0485
670, 9.51073
675, 17.4455
680, 39.3857
685, 53.2392
690, 80.8261
695, 8.27518
700, 20.8021
705, 3.81214
710, 11.3163
715, 91.8871
720, 121.622
725, 96.5622
730, 6.94325
735, 19.5263
740, -3.05215
745, 20.6622
750, 11.5462
755, 26.5713
760, -2.12943
765, 61.0056
770, 38.2492
775, 54.4635
780, 55.1275
785, 7.22679
790, 37.7318
795, 15.8383
800, 18.0654
805, 37.6555
810, 24.5401
815, 19.8204
820, -1.01106
825, 7.03526
830, 22.6492
835, 47.7199
840, 59.0172
845, 104.88
850, 83.2925
855, -1.69999
860, 39.6888
865, 2.73744
870, 35.7687
875, 7.34887
880, 25.1808
885, -1.22901
890, 28.3424
895, 29.5505
900, -5.0649
905, 23.3326
910, 43.2463
915, 8.28951
920, 17.6717
925, 47.3927
930, 27.5453
935, 29.7377
940, -3.07333
945, 57.7468
950, 20.5629
955, 15.0553
960, 59.0447
965, -7.29706
970, 65.6922
975, -11.8959
980, 50.8408
985, 10.6796
990, -5.66519
995, 27.4074
1000, 166.001
1005, 91.2386
1010, 4.89134
1015, 69.8543
1020, 103.522
1025, 119.6
1030, 77.4952
1035, -9.61202
1040, 5.97364
1045, -3.51661
1050, -22.8871
1055, -15.7473
1060, -29.2676
1065, 127.173
1070, 912.219
1075, 1965.42
1080, 2250.06
1085, 1451.21
1090, 361.885
1095, -33.3557
1100, -33.2124
1105, -4.9898
1110, 9.17676
1115, -2.4815
1120, -6.15952
1125, 16.0086
1130, 36.4201
1135, 125.806
1140, 119.133
1145, 88.9959
1150, 11.3382
1155, -2.94243
1160, 42.5335
1165, -14.5711
1170, 28.3651
1175, 91.9054
1180, 204.522
1185, 199.544
1190, 89.3924
1195, 46.8033
1200, -3.84125
1205, 28.1133
1210, 32.1346
1215, 2.29036
1220, -4.88824
1225, 7.97034
1230, 7.24373
1235, 24.1326
1240, 2.78312
1245, 115.88
1250, 245.551
1255, 357.421
1260, 405.659
1265, 467.98
1270, 427.781
1275, 328.79
1280, 274.56
1285, 164.444
1290, 49.4272
1295, 11.6783
1300, 15.5928
1305, -12.3114
1310, 37.7595
1315, 11.4709
1320, 14.859
1325, 47.4208
1330, 5.39295
1335, 36.0181
1340, 15.6827
1345, 23.9088
1350, -11.174
1355, 52.163
1360, -12.5313
1365, 31.9347
1370, 5.76578
1375, 20.2801
1380, 27.3508
1385, 22.8304
1390, 43.2718
1395, 30.4019
1400, 136.213
1405, 172.412
1410, 194.222
1415, 102.187
1420, 24.812
1425, 12.7882
1430, -16.8101
1435, -6.17059
1440, 5.36188
1445, 15.9139
1450, 20.0956
1455, 21.3632
1460, 17.1723
1465, 14.4536
1470, 56.1653
1475, 74.8915
1480, 109.041
1485, 58.2382
1490, 24.8923
1495, -7.62563
1500, 27.9443
1505, 19.0801
1510, 16.3443
1515, 10.0306
1520, 12.1683
1525, -2.10623
1530, 41.1213
1535, 14.7784
1540, -20.1066
1545, -8.48611
1550, 5.4099
1555, -6.39347
1560, -41.3032
1565, 12.3249
1570, 265.119
1575, 1039.65
1580, 1769.04
1585, 1402.55
1590, 405.45
1595, -0.389307
1600, -13.847
1605, -27.2378
1610, 7.86251
1615, 15.9839
1620, 12.8122
1625, -3.88151
1630, 9.21545
1635, 15.4233
1640, 2.21165
1645, 34.1902
1650, -7.55257