File: Raman_Spectroscopy_GAN/input/clinical_sample/s1/s1_1_785M-T_Rlab.txt
a,b
320, 25.2983
325, 57.2209
330, 4.62739
335, 76.7312
340, 42.3618
345, 31.8302
350, 36.8937
355, 20.2162
360, -0.681193
365, -8.2465
370, 31.9551
375, 5.03886
380, 35.6192
385, 43.4505
390, -5.85561
395, 2.4037
400, 15.0331
405, 69.9855
410, 180.827
415, 301.608
420, 334.986
425, 322.834
430, 255.849
435, 122.179
440, 50.9735
445, 6.06602
450, 49.1211
455, 35.9116
460, 31.1804
465, -2.94899
470, -17.0795
475, 2.06552
480, 10.1952
485, -4.78234
490, 65.3886
495, 3.36958
500, -12.8833
505, 4.74535
510, 155.795
515, 241.35
520, 309.776
525, 198.775
530, 161.837
535, 69.4899
540, 36.4
545, 63.8872
550, 46.0632
555, 50.8384
560, 6.80749
565, 2.94442
570, -9.78417
575, 32.6096
580, -5.92978
585, -4.87492
590, 28.1741
595, 44.8536
600, -2.30532
605, -25.3785
610, 24.224
615, -16.1809
620, 7.40842
625, 53.0371
630, 191.239
635, 262.66
640, 368.839
645, 351.45
650, 262.467
655, 161.272
660, 18.6831
665, 38.0125
670, -9.06558
675, -12.8396
680, 29.0854
685, 59.538
690, -4.43806
695, -5.451
700, 24.564
705, 16.4438
710, 128.967
715, 267.119
720, 381.41
725, 406.086
730, 281.952
735, 145.174
740, 31.1774
745, 15.1339
750, -23.443
755, 49.764
760, 42.5214
765, 11.4455
770, 11.2216
775, 1.56858
780, 22.1967
785, 17.9111
790, -4.27364
795, 37.8321
800, 70.5281
805, 12.7615
810, 21.6342
815, 29.654
820, 30.749
825, 35.448
830, -1.86844
835, 8.24977
840, 38.6043
845, 24.7797
850, 32.6151
855, 62.5773
860, 84.8558
865, 109.211
870, 77.2561
875, 46.3772
880, 46.9984
885, 67.1714
890, -1.64265
895, 23.3472
900, 24.2183
905, 23.3517
910, -0.916432
915, 12.8939
920, 23.0955
925, 115.627
930, 110.386
935, 104.435
940, 66.0262
945, 93.1398
950, 15.1036
955, 54.9838
960, 7.4191
965, -6.35227
970, -7.83752
975, 20.5852
980, 20.9856
985, 6.39177
990, -21.9155
995, 20.0134
1000, 48.1536
1005, 58.0712
1010, 14.5196
1015, 48.6582
1020, 56.3396
1025, 66.3342
1030, 75.1725
1035, 21.876
1040, 10.0988
1045, -1.63064
1050, -3.99494
1055, 9.58505
1060, 48.0726
1065, 0.335217
1070, 251.697
1075, 537.403
1080, 542.753
1085, 288.84
1090, 40.7812
1095, -15.0812
1100, 3.64789
1105, -8.0633
1110, 27.4959
1115, 46.2362
1120, 15.4853
1125, 10.9276
1130, 74.9285
1135, 70.1352
1140, 126.026
1145, 71.8405
1150, 21.5774
1155, 27.5757
1160, -4.69034
1165, -14.2584
1170, 11.3346
1175, 32.124
1180, 53.4482
1185, 66.5663
1190, 26.1016
1195, -16.2765
1200, -3.92045
1205, 51.8454
1210, 55.9425
1215, 32.3452
1220, 42.8586
1225, 10.9717
1230, -2.05735
1235, 54.964
1240, 111.784
1245, 158.95
1250, 172.696
1255, 180.196
1260, 181.101
1265, 151.847
1270, 129.638
1275, 54.5281
1280, 66.0221
1285, 26.9637
1290, 53.3981
1295, 58.6289
1300, 78.739
1305, 68.6459
1310, 39.7781
1315, 18.1388
1320, 13.9795
1325, 39.217
1330, -11.0834
1335, 6.91351
1340, 9.11346
1345, 12.2169
1350, 31.0872
1355, 43.6587
1360, 21.4327
1365, 50.1364
1370, 16.0487
1375, -3.98456
1380, 19.3943
1385, 47.9774
1390, 22.4964
1395, 26.7308
1400, 4.24322
1405, 15.4443
1410, -0.2519
1415, 39.0461
1420, -3.34033
1425, 26.5402
1430, 6.7597
1435, 102.577
1440, 112.281
1445, 104.479
1450, 92.0053
1455, 35.7208
1460, 61.8025
1465, 122.727
1470, 163.565
1475, 92.8487
1480, 40.7564
1485, 2.62346
1490, -32.1557
1495, 0.691008
1500, -11.1391
1505, 21.442
1510, 4.33165
1515, 31.8885
1520, -10.1663
1525, -8.26711
1530, 2.93189
1535, 14.5594
1540, 18.9094
1545, -13.3267
1550, 42.0961
1555, 23.9462
1560, -17.0511
1565, 15.6756
1570, 114.633
1575, 239.013
1580, 403.516
1585, 182.053
1590, 35.4384
1595, -4.83802
1600, 16.5239
1605, 19.9605
1610, -23.3131
1615, 18.2335
1620, 49.2681
1625, 12.0609
1630, 36.4049
1635, -5.28444
1640, 24.3267
1645, 11.5232
1650, -11.5734