File: Raman_Spectroscopy_GAN/input/clinical_sample/s6/s6_2_785M-T_Rlab.csv
a,b
320, 0.660317
325, 39.8864
330, 82.8785
335, 77.0941
340, 75.6057
345, 26.1892
350, 27.77
355, 12.039
360, 27.6229
365, 1.56434
370, 22.9288
375, 6.82012
380, 4.52581
385, 23.0597
390, -8.39664
395, -20.5146
400, 4.24952
405, 34.3682
410, 195.959
415, 312.636
420, 380.108
425, 414.258
430, 247.485
435, 142.983
440, 47.0176
445, 17.5597
450, 68.779
455, 81.3242
460, 57.7032
465, -19.7726
470, 8.12492
475, -13.2165
480, 45.8529
485, 71.1131
490, 39.9086
495, 5.94845
500, -11.2404
505, 61.8068
510, 206.699
515, 442.883
520, 477.124
525, 306.578
530, 160.038
535, 43.2171
540, 16.0824
545, 52.3087
550, 55.8336
555, 49.0327
560, 32.7067
565, -4.19804
570, -17.7322
575, -3.67003
580, 18.0932
585, 7.90142
590, 20.5219
595, 31.4855
600, -1.25226
605, 1.66828
610, 8.24902
615, 5.86877
620, 26.0599
625, 23.1176
630, 27.7713
635, 73.3675
640, 35.4327
645, 76.0766
650, 45.4871
655, 3.57166
660, 19.1116
665, 20.2746
670, 34.3197
675, 18.6743
680, 13.7573
685, 32.2901
690, 30.5042
695, 18.0487
700, -1.01556
705, 31.7415
710, 64.9227
715, 60.591
720, 104.138
725, 76.0377
730, 42.477
735, 4.64527
740, 21.3077
745, 3.98541
750, -6.06023
755, 34.5918
760, 14.8321
765, 6.91305
770, 45.2259
775, 49.7195
780, 40.3248
785, 52.1146
790, -2.10951
795, 22.7293
800, 56.4443
805, -4.61511
810, 28.0922
815, 74.5992
820, -15.3499
825, 26.5366
830, 18.5758
835, 2.92531
840, 49.9093
845, 77.5067
850, 39.5718
855, 3.65758
860, 35.1321
865, 11.3796
870, 17.0892
875, 28.2656
880, 7.02149
885, 27.8653
890, 24.8837
895, -9.50702
900, 21.3114
905, 24.8388
910, 16.3076
915, 23.9933
920, -0.665514
925, 42.4274
930, 62.4014
935, 55.9355
940, -2.36384
945, 41.7873
950, 21.3338
955, 52.5515
960, 51.0227
965, 14.2284
970, 25.4908
975, -1.624
980, 57.5094
985, 5.02405
990, -11.9992
995, 75.8682
1000, 105.969
1005, 87.9585
1010, 3.65528
1015, 1.54908
1020, 39.2137
1025, 68.7611
1030, 30.1425
1035, 9.17728
1040, -12.5383
1045, 8.1189
1050, -19.6961
1055, -12.4231
1060, 14.7769
1065, 71.7419
1070, 627.142
1075, 1318.7
1080, 1421.75
1085, 892.401
1090, 280.4
1095, -23.5698
1100, -20.2334
1105, -14.7508
1110, 8.1385
1115, 25.8021
1120, 17.4116
1125, 30.0551
1130, -7.48237
1135, 74.6439
1140, 98.8349
1145, 60.4291
1150, 60.7476
1155, 23.5318
1160, 1.62563
1165, -10.0523
1170, 21.824
1175, 48.5268
1180, 106.523
1185, 111.581
1190, 50.3382
1195, -9.41922
1200, 62.1716
1205, 77.181
1210, 55.8444
1215, 32.7819
1220, 22.8002
1225, 1.01679
1230, -9.53124
1235, 34.161
1240, 48.5154
1245, 159.684
1250, 261.728
1255, 272.11
1260, 264.739
1265, 206.573
1270, 107.685
1275, 46.8007
1280, 17.6421
1285, -3.88776
1290, 19.3593
1295, 0.675208
1300, 45.9511
1305, 29.8088
1310, 7.59194
1315, 24.8801
1320, 7.3018
1325, 45.4422
1330, -16.6802
1335, 7.03013
1340, 10.8886
1345, 2.00596
1350, 34.2546
1355, 35.2683
1360, 14.3274
1365, 48.0649
1370, 18.856
1375, 14.42
1380, -5.29159
1385, 46.2044
1390, 15.1466
1395, 59.0475
1400, 32.3956
1405, 91.4822
1410, 54.2048
1415, 14.9579
1420, 48.2389
1425, 26.8728
1430, 11.528
1435, 24.1893
1440, 18.0299
1445, 35.1565
1450, 28.9163
1455, 19.8757
1460, 12.0462
1465, 29.1386
1470, 40.8563
1475, 52.5743
1480, 42.7903
1485, -2.97575
1490, -4.15712
1495, -2.75545
1500, 18.4965
1505, -5.63358
1510, -13.3554
1515, 51.5507
1520, -0.642805
1525, 22.6764
1530, 37.479
1535, 20.7938
1540, -27.5958
1545, 13.843
1550, 29.1951
1555, -11.3273
1560, -11.9891
1565, 35.8721
1570, 221.44
1575, 652.114
1580, 1015.11
1585, 692.919
1590, 162.155
1595, -13.0386
1600, -26.4497
1605, 5.04495
1610, -8.41368
1615, 22.4977
1620, -6.03654
1625, -6.07291
1630, 0.164937
1635, 21.8023
1640, 40.3893
1645, -9.63565
1650, 20.0322