File: Raman_Spectroscopy_GAN/input/clinical_sample/s6/s6_4_785M-T_Rlab.csv
a,b
320, 38.818
325, 134.517
330, 243.609
335, 253.162
340, 231.837
345, 149.684
350, 71.3364
355, 8.04636
360, 22.2605
365, 24.3999
370, -1.34671
375, 23.5603
380, -2.66131
385, 38.4587
390, 28.2179
395, -9.87707
400, 54.4637
405, 100.191
410, 342.723
415, 487.782
420, 530.151
425, 525.53
430, 401.811
435, 294.761
440, 230.475
445, 217.283
450, 219.294
455, 180.576
460, 111.817
465, 39.9523
470, -11.0069
475, 39.8501
480, -0.972188
485, 8.75039
490, 46.0283
495, -0.321921
500, 61.9687
505, 267.811
510, 541.232
515, 829.99
520, 930.352
525, 711.334
530, 411.012
535, 249.396
540, 114.658
545, 46.6603
550, 78.6378
555, 58.5297
560, 17.7987
565, -10.793
570, 23.2197
575, -13.5397
580, 2.11555
585, 17.055
590, 54.6521
595, 43.3384
600, -0.0199896
605, 38.4951
610, -15.4546
615, 22.5399
620, 72.7406
625, 80.2761
630, 104.671
635, 87.642
640, 128.157
645, 111.296
650, 55.8992
655, 40.0506
660, 28.5617
665, 31.6642
670, 32.3677
675, 16.2986
680, 25.9748
685, 4.38201
690, 42.3335
695, 16.1944
700, 40.2089
705, 54.7523
710, 86.7844
715, 180.431
720, 174.983
725, 122.97
730, 74.5704
735, 31.8993
740, 8.529
745, 4.21858
750, 10.5674
755, 32.6773
760, 23.8921
765, -5.92259
770, 57.8017
775, 51.7001
780, 26.482
785, 43.1458
790, 52.1541
795, 49.3401
800, 28.675
805, 36.1984
810, 17.2326
815, 31.3231
820, 7.98685
825, 25.3958
830, 25.7448
835, 55.4887
840, 124.134
845, 132.219
850, 99.6701
855, 65.783
860, 80.4601
865, 48.9027
870, 20.1986
875, 16.5346
880, 0.37372
885, 30.4905
890, 5.20305
895, 28.8436
900, -2.58813
905, 5.50688
910, 62.4903
915, 63.8621
920, 62.8752
925, 68.278
930, 81.079
935, 86.1786
940, 79.8969
945, 58.5815
950, 64.379
955, 54.3987
960, 6.60063
965, -8.81013
970, 86.8235
975, -0.728865
980, 54.0107
985, 16.8887
990, 15.0237
995, 15.8591
1000, 114.051
1005, 68.0369
1010, 24.4673
1015, 62.8219
1020, 69.7936
1025, 37.8568
1030, 2.71712
1035, -8.57624
1040, 26.7247
1045, -25.4016
1050, 15.2139
1055, -3.90964
1060, 194.091
1065, 546.713
1070, 1462.5
1075, 2696.41
1080, 3025.33
1085, 1961.94
1090, 692.908
1095, 99.1951
1100, -25.3397
1105, -18.6588
1110, 16.0581
1115, 1.97515
1120, 29.3699
1125, 24.2386
1130, 47.7547
1135, 142.585
1140, 157.054
1145, 110.886
1150, 49.3585
1155, 25.2437
1160, -11.3953
1165, 48.1039
1170, 70.3252
1175, 167.193
1180, 291.211
1185, 259.905
1190, 75.6188
1195, 13.0034
1200, 44.8065
1205, 67.4399
1210, 50.7339
1215, 56.1333
1220, 29.7403
1225, -9.16917
1230, 25.063
1235, 105.97
1240, 212.819
1245, 315.935
1250, 390.509
1255, 447.679
1260, 423.666
1265, 386.616
1270, 310.737
1275, 241.906
1280, 149.473
1285, 88.6609
1290, 44.4795
1295, 24.5218
1300, 2.10804
1305, 30.3579
1310, 9.72124
1315, 3.37201
1320, 27.1823
1325, 9.80166
1330, 13.1192
1335, -19.2258
1340, 19.515
1345, -7.74305
1350, 36.9863
1355, 39.9564
1360, 40.9392
1365, 59.2047
1370, 38.8194
1375, 71.9221
1380, 102.785
1385, 173.591
1390, 237.625
1395, 220.403
1400, 288.883
1405, 279.308
1410, 201.817
1415, 133.229
1420, 41.9073
1425, 9.91601
1430, 12.8053
1435, 15.5729
1440, -4.54291
1445, 82.7929
1450, 22.1382
1455, 27.4742
1460, 51.8503
1465, 44.9222
1470, 72.7627
1475, 41.7087
1480, 84.727
1485, 27.9867
1490, 32.185
1495, 4.19432
1500, -14.7516
1505, 1.69002
1510, 10.2465
1515, 18.9242
1520, 24.3493
1525, 9.20597
1530, 16.2248
1535, -19.9801
1540, -2.20566
1545, -5.97415
1550, -1.73366
1555, 8.70481
1560, -37.6006
1565, 144.574
1570, 637.361
1575, 1562.9
1580, 2185.21
1585, 1513.24
1590, 530.715
1595, 86.2381
1600, -27.9324
1605, 0.800592
1610, -29.4944
1615, 12.3565
1620, 8.54196
1625, -4.45669
1630, 15.1438
1635, -1.29963
1640, 15.5643
1645, 14.3248
1650, 14.7624