File: Raman_Spectroscopy_GAN/input/clinical_sample/s9/s9_1_785M-T_Rlab.csv
a,b
320, 21.1392
325, -0.576551
330, 5.09575
335, -1.16591
340, 19.3848
345, 24.3977
350, 6.82806
355, 42.4836
360, -0.781304
365, -2.88063
370, 26.8065
375, 31.4068
380, 19.1718
385, 5.65388
390, 1.9785
395, -7.49995
400, -5.55226
405, 78.912
410, 169.726
415, 254.579
420, 311.133
425, 279.325
430, 218.512
435, 141.141
440, 35.6533
445, 2.12987
450, 94.4401
455, 60.5989
460, 36.4055
465, -8.53128
470, 15.1209
475, -11.2157
480, 15.561
485, 61.8201
490, 68.9456
495, 37.6918
500, -9.37796
505, 43.5998
510, 52.5599
515, 111.945
520, 193.45
525, 130.241
530, 115.886
535, 48.0639
540, 76.298
545, 101.006
550, 76.5016
555, 91.4203
560, 48.8087
565, 35.267
570, -12.446
575, -5.70852
580, 3.61218
585, 38.3394
590, 33.6607
595, 1.52024
600, 39.0142
605, 21.7008
610, -3.77874
615, -3.53495
620, 32.7346
625, 39.0308
630, 37.6648
635, 42.2346
640, 59.8533
645, 77.0383
650, 5.54786
655, 11.6953
660, 9.44148
665, 10.6
670, 16.1393
675, 20.4869
680, 3.18996
685, 38.3475
690, 92.3244
695, 41.7472
700, 49.3255
705, 2.04033
710, 34.0501
715, 29.2084
720, 1.99799
725, 10.6112
730, -3.57246
735, 9.88352
740, 11.3767
745, 14.0705
750, 35.0818
755, 41.3758
760, -6.7705
765, 16.6746
770, 35.6383
775, 9.60258
780, 22.6523
785, 1.60127
790, 58.5242
795, 27.1456
800, 18.6504
805, 39.4043
810, 26.7043
815, -5.74904
820, 10.103
825, 32.0304
830, 11.0177
835, 9.38684
840, 27.7579
845, 16.4594
850, -6.08583
855, 9.60624
860, 38.3933
865, 46.1418
870, 4.81725
875, 37.8202
880, 2.26881
885, 27.743
890, 37.8952
895, 13.8937
900, 12.1723
905, 43.4255
910, 29.356
915, -0.444021
920, 19.961
925, 44.8775
930, 71.6464
935, 89.1161
940, 38.3118
945, 20.2673
950, 33.14
955, 20.2813
960, 20.2723
965, 2.19235
970, 8.13902
975, 23.1686
980, -4.74184
985, -6.36219
990, 52.1354
995, 118.146
1000, 167.989
1005, 72.224
1010, 13.5838
1015, -14.6893
1020, 82.0332
1025, 109.855
1030, 84.8544
1035, 23.8118
1040, -23.6281
1045, 42.701
1050, 26.0993
1055, 5.59764
1060, 12.2534
1065, 158.716
1070, 329.829
1075, 487.211
1080, 392.354
1085, 214.377
1090, 31.7024
1095, -15.453
1100, 4.11545
1105, -8.45603
1110, 36.9775
1115, 27.8448
1120, -2.47492
1125, 9.03439
1130, 16.307
1135, 3.5785
1140, 44.8052
1145, 9.35319
1150, -3.50507
1155, 21.6279
1160, -0.254713
1165, 49.6143
1170, -2.83863
1175, 3.31312
1180, 47.7803
1185, 32.2942
1190, 44.6977
1195, 2.55576
1200, 3.15298
1205, 75.5713
1210, 61.3522
1215, 9.05113
1220, 28.2306
1225, -6.64614
1230, 15.8144
1235, 16.3463
1240, 22.7661
1245, 100.442
1250, 116.395
1255, 144.914
1260, 132.253
1265, 105.169
1270, 85.1895
1275, 20.6976
1280, 19.6191
1285, 29.3594
1290, 19.7047
1295, -8.30609
1300, 64.3518
1305, 19.8675
1310, 5.87643
1315, 6.79352
1320, 3.69683
1325, 1.98365
1330, 32.7147
1335, 18.8962
1340, -0.56371
1345, 30.4969
1350, 39.1144
1355, -11.9302
1360, 55.7551
1365, 21.0964
1370, 18.783
1375, 11.0341
1380, 9.94163
1385, 40.3661
1390, 37.8486
1395, 60.0385
1400, 7.85969
1405, 63.7735
1410, 10.9294
1415, -0.344483
1420, 24.0549
1425, 30.6455
1430, 11.383
1435, 4.64823
1440, 27.803
1445, 13.409
1450, 45.8795
1455, 37.5806
1460, 46.9424
1465, 43.5352
1470, 65.0838
1475, 29.4526
1480, 2.90924
1485, 51.5096
1490, 29.4044
1495, 17.4014
1500, 21.7792
1505, 7.7858
1510, -3.64524
1515, 35.7612
1520, 12.6369
1525, 7.80262
1530, 3.05896
1535, 10.2129
1540, 7.62886
1545, 16.6947
1550, 50.6643
1555, 42.6144
1560, -5.78964
1565, 59.7062
1570, 105.659
1575, 199.001
1580, 184.896
1585, 153.444
1590, 1.7377
1595, -3.31861
1600, 15.7412
1605, 21.7412
1610, 3.12418
1615, 27.166
1620, 38.3383
1625, 27.8522
1630, 38.1541
1635, 1.1462
1640, 34.6338
1645, 45.0791
1650, 17.5343