File: Raman_Spectroscopy_GAN/input/clinical_sample/s9/s9_2_785M-T_Rlab.csv
a,b
320, -5.36315
325, 38.1181
330, 8.69162
335, -10.5383
340, 55.3793
345, 53.5869
350, 54.9265
355, 26.173
360, 34.7427
365, 14.6954
370, 35.7098
375, 29.6661
380, 7.323
385, 7.67228
390, 41.1942
395, -4.96791
400, -11.7403
405, 81.2222
410, 138.47
415, 136.9
420, 190.876
425, 199.292
430, 155.487
435, 70.9755
440, 23.3624
445, -6.89
450, 54.7662
455, 63.5617
460, 41.1643
465, -4.28936
470, 18.5326
475, 1.02891
480, 26.5323
485, 28.432
490, 36.8278
495, 9.6063
500, -3.07899
505, 44.348
510, 116.847
515, 146.452
520, 195.289
525, 171.831
530, 119.291
535, 56.8893
540, 88.4131
545, 7.66381
550, 66.9134
555, 84.7178
560, 16.5648
565, -10.4564
570, 20.9168
575, 13.6219
580, -5.63515
585, 28.9497
590, 24.8957
595, 2.68096
600, 46.9312
605, 50.9058
610, -6.6877
615, 12.6179
620, 36.4866
625, 47.7805
630, 32.6715
635, -0.0595621
640, 34.2517
645, 68.1714
650, 6.37518
655, -5.18342
660, 6.23878
665, 36.6018
670, 25.469
675, -4.62499
680, -0.917282
685, 10.0722
690, 62.6908
695, 28.2053
700, 14.1061
705, 37.7377
710, 1.35039
715, 46.2958
720, 22.9481
725, 32.0852
730, -12.6574
735, 24.3986
740, 27.15
745, 5.52024
750, 48.9124
755, 42.986
760, 12.7179
765, -5.08135
770, 65.6276
775, 54.9751
780, -7.64679
785, 57.3903
790, 60.2368
795, 55.613
800, 28.6533
805, 38.295
810, 4.90397
815, 50.415
820, 12.4147
825, 10.8199
830, 2.18141
835, 20.7477
840, 65.9251
845, 55.4662
850, -8.94105
855, 15.392
860, 57.7217
865, 14.4787
870, 50.2521
875, 50.3093
880, 32.0879
885, 44.3745
890, 0.701036
895, 39.4195
900, 26.9825
905, 9.00025
910, 25.5718
915, 19.778
920, 5.74658
925, 12.0448
930, 60.8167
935, 4.63043
940, 3.69139
945, 40.4068
950, 52.7807
955, 11.6143
960, 18.3852
965, 37.1942
970, 20.1717
975, 7.8109
980, 33.2776
985, 28.5666
990, 6.52942
995, 42.8769
1000, 19.8337
1005, 13.5494
1010, 23.8109
1015, 12.4571
1020, -3.03527
1025, 18.3134
1030, 15.9081
1035, 28.4167
1040, -2.36639
1045, 16.0863
1050, 8.51639
1055, 16.2039
1060, 1.17898
1065, 35.6443
1070, 114.89
1075, 292.447
1080, 335.203
1085, 236.851
1090, 52.405
1095, -16.3365
1100, 1.3928
1105, -9.81216
1110, 21.3213
1115, 9.89378
1120, 37.4266
1125, 9.93065
1130, -2.83665
1135, 52.236
1140, 40.207
1145, 68.133
1150, 36.4233
1155, 1.33884
1160, 25.1063
1165, 23.1313
1170, 5.51228
1175, 41.9037
1180, 15.1745
1185, 41.6283
1190, 24.6309
1195, -5.59755
1200, -0.583432
1205, 52.3196
1210, 59.9179
1215, 28.6633
1220, 22.4761
1225, 11.6991
1230, -4.31222
1235, 4.62375
1240, 11.8074
1245, 52.0341
1250, 93.2198
1255, 103.11
1260, 80.1387
1265, 32.6845
1270, 44.7337
1275, 14.2325
1280, 30.1313
1285, -5.44952
1290, 35.2251
1295, 10.9452
1300, 51.6437
1305, 30.838
1310, 13.0328
1315, 2.95833
1320, 5.87046
1325, 14.1874
1330, 9.27589
1335, 1.35035
1340, 7.68128
1345, 6.37111
1350, 31.6589
1355, 24.1157
1360, 28.3115
1365, 17.1559
1370, 27.9134
1375, 3.5682
1380, 25.1903
1385, 15.8101
1390, 11.5219
1395, 37.6256
1400, 8.84142
1405, 48.0065
1410, 31.4958
1415, -16.848
1420, 1.3478
1425, 41.9061
1430, 10.4697
1435, 34.086
1440, 50.4516
1445, 11.6939
1450, 55.7057
1455, 46.4318
1460, 8.53563
1465, 51.5557
1470, 65.8699
1475, 4.44554
1480, 22.8045
1485, 7.65658
1490, 52.9013
1495, -21.7119
1500, 4.6886
1505, 16.5158
1510, 16.8899
1515, 4.59546
1520, 26.686
1525, -2.53734
1530, -10.1144
1535, 32.1751
1540, 14.4505
1545, -9.74693
1550, 38.9263
1555, -1.23138
1560, -20.2834
1565, 8.54775
1570, 84.4107
1575, 197.012
1580, 273.651
1585, 125.481
1590, 14.6158
1595, -8.29507
1600, -8.73195
1605, -5.4685
1610, 6.76556
1615, -3.17242
1620, -1.8919
1625, 6.12102
1630, 24.8841
1635, 3.17475
1640, 27.3968
1645, 24.9706
1650, 0.246856