File: Raman_Spectroscopy_GAN/input/clinical_sample/s9/s9_3_785M-T_Rlab.csv
a,b
320, 1.18577
325, 0.681529
330, 17.4314
335, 7.99029
340, -4.16387
345, 32.5817
350, 10.258
355, 82.1222
360, 101.053
365, 59.7073
370, 20.2576
375, 26.3501
380, 4.96244
385, -8.11405
390, 15.5675
395, -10.2417
400, 13.8465
405, 22.3127
410, 90.9438
415, 161.436
420, 220.969
425, 222.19
430, 182.372
435, 99.5049
440, 3.08103
445, 29.7042
450, 61.0777
455, 101.418
460, -11.0781
465, 14.5935
470, 5.0929
475, 14.014
480, -3.08434
485, 45.4619
490, 39.8371
495, 5.41799
500, 18.1195
505, -0.865057
510, 60.1597
515, 136.372
520, 175.779
525, 139.38
530, 66.3363
535, 26.8284
540, 60.1581
545, 73.9403
550, 72.2311
555, 48.5047
560, 39.0737
565, -0.896668
570, 9.65402
575, 14.7476
580, 17.6117
585, 62.3974
590, 1.45398
595, 24.7928
600, 43.0465
605, -9.6155
610, 2.32945
615, -2.46738
620, 35.8828
625, 4.11759
630, 41.1124
635, 48.8826
640, 55.459
645, 9.21301
650, 17.7782
655, -2.56048
660, 19.5639
665, 0.116216
670, -3.54133
675, 38.9545
680, 1.09223
685, 14.7973
690, 38.4322
695, 22.0088
700, -1.12726
705, 26.7244
710, 43.2311
715, 28.0028
720, 23.9722
725, 16.7497
730, 0.895137
735, 3.39856
740, -4.0527
745, 9.80536
750, 19.0246
755, -6.50762
760, 19.8169
765, 21.7731
770, 21.1708
775, 52.7736
780, 21.445
785, 54.3829
790, 0.959389
795, 55.564
800, 22.8672
805, 23.758
810, 44.1475
815, -7.22467
820, 25.1775
825, 17.1503
830, 23.3264
835, 33.2525
840, 29.1278
845, 23.0951
850, 52.508
855, 9.59763
860, 18.2247
865, 10.1947
870, 39.6819
875, 30.009
880, 20.8264
885, 0.819856
890, 22.7553
895, 21.0347
900, 7.06438
905, 16.3975
910, 21.3603
915, 33.751
920, 2.11136
925, 37.7513
930, 67.3892
935, 57.2233
940, 15.9209
945, 3.8899
950, 14.8279
955, 42.1085
960, 25.9139
965, 27.2323
970, -0.267716
975, 12.6357
980, 13.6886
985, 11.9628
990, 20.4571
995, 25.1249
1000, 22.8109
1005, 11.7569
1010, 28.9262
1015, 13.7837
1020, 13.1006
1025, 3.29173
1030, 16.3818
1035, 9.13457
1040, 16.0711
1045, 34.5251
1050, -6.94077
1055, 1.96437
1060, 28.8858
1065, 48.2991
1070, 119.547
1075, 276.415
1080, 243.191
1085, 182.968
1090, 23.5891
1095, -1.43313
1100, 3.19153
1105, 9.86893
1110, 35.95
1115, -20.117
1120, 9.50382
1125, 28.5531
1130, 37.4811
1135, 16.9677
1140, 45.0508
1145, 15.2614
1150, 14.2197
1155, 19.3466
1160, 12.2443
1165, 8.08197
1170, 14.3517
1175, -5.1296
1180, 22.796
1185, 28.5079
1190, 63.3013
1195, 26.7719
1200, 6.2329
1205, 51.3464
1210, 52.3385
1215, 17.2459
1220, 15.2044
1225, -14.248
1230, 18.163
1235, 41.6463
1240, 27.6934
1245, 18.0171
1250, 79.0674
1255, 65.9991
1260, 68.2349
1265, 30.9671
1270, 47.652
1275, 51.8555
1280, 28.6772
1285, 33.9061
1290, -12.1514
1295, 40.0049
1300, 47.8128
1305, -11.7269
1310, 32.6493
1315, 22.7966
1320, 20.8173
1325, 19.5992
1330, 15.5583
1335, 6.07859
1340, 37.5042
1345, -1.23835
1350, 41.7168
1355, 10.1887
1360, -1.33702
1365, 28.0118
1370, 3.88117
1375, 31.8775
1380, 33.941
1385, 58.5564
1390, 25.2313
1395, 75.0647
1400, 41.463
1405, 31.7891
1410, 25.2531
1415, 29.8623
1420, -3.46697
1425, 28.2466
1430, 11.3906
1435, 9.38022
1440, 14.6477
1445, 51.5321
1450, 24.752
1455, 61.8046
1460, 21.4251
1465, 42.0638
1470, 49.5612
1475, 63.0432
1480, 30.6748
1485, 13.4742
1490, 15.8941
1495, 25.4598
1500, 19.0418
1505, 16.8671
1510, -2.24341
1515, 45.9047
1520, -5.21983
1525, 18.3927
1530, 21.5851
1535, -9.2336
1540, 30.3954
1545, 17.7118
1550, -0.206315
1555, 1.75874
1560, -11.3476
1565, 2.03267
1570, 62.3324
1575, 166.618
1580, 208.602
1585, 167.53
1590, 17.8771
1595, 35.4442
1600, 0.602305
1605, 44.8098
1610, -8.24103
1615, 54.7473
1620, 27.4278
1625, 16.9507
1630, 18.4639
1635, 42.2827
1640, 13.7941
1645, 27.3745
1650, 23.9289