File: Raman_Spectroscopy_GAN/input/clinical_sample/s9/s9_4_785M-T_Rlab.csv
a,b
320, -6.937
325, 13.6465
330, 34.4673
335, 34.7006
340, 6.28961
345, 61.3981
350, 72.3127
355, 58.4669
360, 31.7902
365, 18.5431
370, 19.4022
375, 13.6452
380, 28.4474
385, 3.54681
390, 2.80372
395, 26.6709
400, 7.9358
405, 86.1962
410, 131.092
415, 221.128
420, 280.018
425, 297.219
430, 227.192
435, 135.171
440, 67.4696
445, 3.05306
450, 27.5966
455, 65.8111
460, 42.1925
465, 2.93436
470, 24.5268
475, -20.0058
480, 37.8499
485, 53.6985
490, 79.9785
495, -4.7624
500, 7.30616
505, 30.1075
510, 43.3025
515, 129.72
520, 179.627
525, 101.018
530, 52.6393
535, 60.2013
540, 39.315
545, 80.1278
550, 65.2761
555, 48.7432
560, 11.7014
565, -4.56644
570, 15.4653
575, 12.669
580, -1.38867
585, 44.2577
590, 14.7259
595, 13.998
600, -1.34847
605, 20.9514
610, -4.74753
615, 3.82851
620, 14.5473
625, 33.1496
630, 60.1151
635, -7.00055
640, 71.4354
645, 72.348
650, 35.885
655, 14.7871
660, 38.6182
665, -7.24288
670, 29.6659
675, 37.1574
680, 15.1842
685, 0.636448
690, 13.5299
695, 19.8906
700, 17.2886
705, 0.837036
710, 26.2773
715, 2.67276
720, 20.51
725, 10.8569
730, -2.67111
735, 23.7717
740, 22.9025
745, -7.59626
750, 52.6734
755, 44.0091
760, 3.28623
765, 30.5979
770, 44.6199
775, 52.6837
780, 51.3779
785, 0.723274
790, 39.3185
795, 52.9699
800, 50.8152
805, 19.5274
810, 19.9701
815, -3.91773
820, 22.8328
825, 14.1357
830, 26.7987
835, 21.047
840, 2.78596
845, 19.4703
850, 1.1194
855, 0.127895
860, 22.6313
865, 22.2325
870, 15.7525
875, 22.3523
880, 18.8959
885, 53.6198
890, 22.2092
895, 12.806
900, 23.5914
905, 28.5219
910, -6.3383
915, 33.998
920, 30.1195
925, 26.8489
930, 74.8046
935, 43.537
940, 16.0849
945, 26.6939
950, 21.3382
955, 14.5936
960, 23.2528
965, -6.81036
970, -2.44762
975, -1.14529
980, 43.4078
985, -0.282863
990, -3.25313
995, 13.3727
1000, 20.3011
1005, 36.8325
1010, 26.6104
1015, 4.18563
1020, -0.486013
1025, 2.14346
1030, 1.41112
1035, 24.8746
1040, 4.03541
1045, 6.46931
1050, -7.01819
1055, 6.8561
1060, 35.0577
1065, 43.2179
1070, 101.202
1075, 252.81
1080, 322.566
1085, 183.026
1090, 65.2707
1095, -11.2306
1100, 35.3125
1105, 20.3475
1110, -2.52759
1115, 0.317019
1120, 20.5964
1125, 15.1343
1130, 19.2409
1135, 23.3359
1140, 43.8854
1145, 26.9834
1150, 20.244
1155, 14.8571
1160, 37.6645
1165, -14.4651
1170, 27.9524
1175, 15.3711
1180, 3.27742
1185, 29.9656
1190, 51.8
1195, 6.91558
1200, 19.3864
1205, 8.20723
1210, 55.1976
1215, 0.213453
1220, 31.4336
1225, -10.8956
1230, 18.5895
1235, 37.8709
1240, 43.1708
1245, 86.8885
1250, 73.2005
1255, 112.04
1260, 105.963
1265, 52.3182
1270, 62.1543
1275, 86.9065
1280, 60.6409
1285, 73.2017
1290, -20.4908
1295, 32.7175
1300, 24.4674
1305, 35.1691
1310, 51.9523
1315, 33.0314
1320, 11.3943
1325, 71.9138
1330, 15.3952
1335, -6.53655
1340, 11.1783
1345, 37.7758
1350, 22.34
1355, 0.886893
1360, 32.3079
1365, 11.1066
1370, 41.5834
1375, 31.1738
1380, 35.8657
1385, 64.3359
1390, 45.8816
1395, 54.8832
1400, 24.7157
1405, 40.2717
1410, 46.4382
1415, -7.77608
1420, 19.2183
1425, 60.7847
1430, 40.537
1435, 18.5224
1440, 45.3712
1445, 40.6213
1450, 42.7238
1455, 70.6107
1460, 72.3673
1465, 32.9337
1470, 75.9071
1475, 86.7796
1480, 63.1163
1485, 12.1305
1490, 5.29836
1495, 25.7879
1500, -11.9603
1505, 38.4186
1510, 20.0512
1515, 13.4635
1520, -5.78797
1525, 29.1104
1530, 0.232888
1535, 30.3948
1540, 15.2605
1545, -8.84544
1550, 30.821
1555, 5.07306
1560, -12.5283
1565, 41.1712
1570, 28.3334
1575, 158.101
1580, 254.559
1585, 184.364
1590, 16.8401
1595, -1.35216
1600, 1.77163
1605, 25.1166
1610, 30.6704
1615, 15.0307
1620, 5.61436
1625, 41.0097
1630, 22.5713
1635, 30.012
1640, 18.1127
1645, 24.4107
1650, 2.75901