File: Raman_Spectroscopy_GAN/input/clinical_sample/s5/s5_1_785M-T_Rlab.csv
a,b
320, -31.3806
325, -2.94959
330, 4.04096
335, 37.8023
340, -6.36422
345, 14.3175
350, -0.656266
355, 22.7978
360, -34.446
365, 0.888846
370, -12.3497
375, -1.47859
380, -1.99508
385, -24.7683
390, -27.5422
395, -7.85523
400, -33.0603
405, -13.7055
410, 40.9128
415, 54.0396
420, 39.3237
425, 15.5804
430, 9.06306
435, -29.3195
440, -14.0385
445, -0.961913
450, 21.1413
455, -25.1848
460, 25.8344
465, -20.4517
470, 1.4238
475, 9.29878
480, -31.7821
485, 20.5879
490, 0.996227
495, -12.3162
500, -15.7016
505, -30.58
510, 8.3884
515, 41.5682
520, 51.3411
525, -10.2692
530, 6.52976
535, 0.587059
540, -8.12204
545, -17.0232
550, 5.78572
555, 29.3972
560, -29.0252
565, 12.5684
570, -18.6466
575, 10.6789
580, -20.5942
585, 13.8759
590, -14.4435
595, 12.7068
600, -10.0922
605, -9.23235
610, -2.08299
615, -3.60278
620, 6.08661
625, 3.51515
630, -42.2822
635, 46.4952
640, -24.329
645, 25.5991
650, 3.0872
655, -5.6966
660, -34.5247
665, 20.8347
670, 14.079
675, -21.0045
680, 0.0369164
685, -1.02589
690, 45.1324
695, 2.02077
700, -5.93168
705, -16.6255
710, 0.805353
715, -2.1935
720, 13.7625
725, 0.279315
730, 0.730765
735, -16.9992
740, -1.32259
745, -14.1606
750, 18.568
755, -9.88801
760, -9.4162
765, 11.0018
770, 1.29124
775, -0.371658
780, -11.4506
785, 22.9315
790, -23.1706
795, 18.9226
800, 7.79691
805, -6.61798
810, 11.8821
815, -0.775051
820, 0.57442
825, 6.86937
830, -16.4065
835, -21.1543
840, 26.2672
845, 19.4199
850, -29.6947
855, 7.85582
860, -19.3617
865, -3.60209
870, 35.6628
875, -24.9085
880, -13.9015
885, 5.74316
890, 16.7098
895, -12.5889
900, -2.09836
905, 1.88038
910, -2.25299
915, 18.1704
920, -25.197
925, 35.4991
930, -1.68164
935, -1.10107
940, -8.45926
945, -1.51767
950, 10.0586
955, -7.98429
960, 30.7139
965, -35.4422
970, -11.5767
975, -12.0962
980, 15.4943
985, 8.16851
990, -40.7335
995, -23.6189
1000, 85.7229
1005, -16.5271
1010, -16.4159
1015, -32.4623
1020, 25.3332
1025, 64.932
1030, -8.49011
1035, -24.5381
1040, -3.19885
1045, 5.76796
1050, -47.3356
1055, -11.8748
1060, -91.0056
1065, -29.1312
1070, 117.65
1075, 143.356
1080, 51.1673
1085, -53.8939
1090, -51.5541
1095, -52.3628
1100, -3.6541
1105, -0.66665
1110, 16.4974
1115, -7.9715
1120, -9.17265
1125, 13.3143
1130, 12.4129
1135, -33.8494
1140, 28.5405
1145, -24.4115
1150, 12.6508
1155, -19.7291
1160, 6.80146
1165, -23.8558
1170, 8.86085
1175, -20.3338
1180, 31.4371
1185, 2.15798
1190, -20.3313
1195, -0.625691
1200, -10.125
1205, 1.15916
1210, 3.33044
1215, 10.6704
1220, -22.1589
1225, -9.84337
1230, -0.0167912
1235, -7.3345
1240, 0.0179248
1245, 4.00633
1250, -5.96156
1255, 9.18985
1260, 20.7752
1265, 16.2712
1270, -6.48173
1275, 13.9126
1280, -1.26872
1285, -18.3278
1290, 5.05118
1295, -9.64748
1300, -10.2795
1305, 15.1891
1310, -18.8967
1315, 10.3809
1320, 1.00533
1325, 13.6271
1330, -6.98625
1335, 18.4349
1340, -3.11933
1345, -4.26557
1350, -16.6736
1355, 1.97032
1360, 1.14444
1365, 20.6159
1370, -6.39934
1375, -11.7097
1380, 18.8223
1385, 20.6326
1390, -7.33437
1395, -7.53118
1400, 24.3331
1405, -10.5195
1410, 15.8406
1415, -23.2249
1420, 2.65026
1425, -1.43961
1430, -5.56323
1435, 1.10964
1440, 21.5772
1445, 12.9041
1450, 10.9054
1455, -8.91607
1460, 27.6365
1465, -9.24658
1470, 2.43043
1475, 6.24047
1480, 15.7734
1485, -12.3783
1490, 3.35334
1495, -9.82428
1500, -22.5021
1505, 2.87509
1510, -9.72347
1515, -8.55184
1520, -13.3741
1525, -3.66706
1530, 4.92109
1535, -15.2998
1540, -20.9426
1545, -9.76341
1550, -19.1273
1555, -25.3384
1560, -34.1734
1565, 6.89216
1570, 17.4823
1575, 26.4544
1580, 66.7542
1585, -6.75516
1590, -43.2716
1595, -32.5381
1600, 3.78507
1605, -13.8345
1610, -2.06383
1615, 16.5829
1620, 10.0607
1625, -20.1627
1630, -8.50444
1635, 8.53553
1640, -55.924
1645, 7.51091
1650, -34.0365