File: Raman_Spectroscopy_GAN/input/clinical_sample/s5/s5_4_785M-T_Rlab.csv
a,b
320, -52.0553
325, 16.9791
330, 39.5158
335, 145.939
340, 96.3078
345, 190.951
350, 83.8863
355, 30.5729
360, -5.67869
365, -18.2178
370, -23.6026
375, 27.825
380, -30.684
385, 3.79384
390, -45.4663
395, -7.10787
400, 14.3723
405, 234.932
410, 396.119
415, 421.925
420, 476.554
425, 326.465
430, 153.55
435, 1.49008
440, 4.67364
445, -17.2718
450, 42.8693
455, 89.5626
460, 73.7208
465, -27.7349
470, 21.2771
475, 2.51988
480, 1.43638
485, 7.77964
490, 58.7033
495, -27.1132
500, -29.7598
505, 57.6819
510, 113.326
515, 435.19
520, 454.454
525, 264.756
530, 51.986
535, -0.519785
540, -29.4453
545, 22.1045
550, 19.9437
555, 60.4632
560, -16.0881
565, -5.09536
570, 0.72461
575, 44.4338
580, -1.85218
585, 46.1952
590, -30.7765
595, 29.5861
600, 16.1999
605, 14.4249
610, -3.09771
615, -15.1792
620, 22.1471
625, 65.9563
630, 28.3768
635, 75.0324
640, 21.877
645, 11.8627
650, 11.7907
655, 42.8322
660, -3.33911
665, 9.60175
670, -4.37751
675, 19.4453
680, 7.93387
685, 57.086
690, 48.0851
695, 53.4683
700, -8.21017
705, -7.33739
710, 58.6204
715, 58.1085
720, 7.80166
725, 28.1682
730, 65.8978
735, 13.5881
740, 21.3819
745, -35.0042
750, 19.9048
755, 24.7144
760, -14.0482
765, 47.6742
770, 41.0326
775, 11.626
780, 4.95842
785, 23.3758
790, 38.063
795, 57.5339
800, 19.751
805, 31.6303
810, 6.07813
815, 13.9199
820, 38.8201
825, -2.25771
830, 36.7587
835, 24.0418
840, 65.6367
845, -2.80822
850, 44.5978
855, -27.1718
860, 10.1073
865, 25.8851
870, 23.5928
875, -6.46784
880, -0.705293
885, 2.55497
890, 53.0551
895, 27.2634
900, -7.50476
905, 34.0217
910, 5.11362
915, 68.1968
920, -11.9259
925, 44.3279
930, 77.8114
935, 18.0399
940, 53.351
945, 67.1805
950, -24.5724
955, 55.3971
960, 28.721
965, -4.86965
970, -11.5193
975, -5.20708
980, 25.0746
985, 28.7449
990, -14.549
995, 55.0452
1000, 186.52
1005, 90.1645
1010, -2.36951
1015, 61.9987
1020, 40.8578
1025, 88.7767
1030, 6.6736
1035, -2.96257
1040, -8.48168
1045, -22.2052
1050, -31.7766
1055, -32.6902
1060, -58.4146
1065, 47.0095
1070, 761.073
1075, 1477.41
1080, 1193.71
1085, 247.851
1090, -66.7088
1095, -78.5489
1100, -35.1796
1105, -0.289539
1110, 3.33124
1115, 7.13184
1120, 7.0644
1125, 27.4387
1130, 39.3034
1135, 84.0095
1140, 107.5
1145, 38.691
1150, -1.78719
1155, 0.149388
1160, -9.63956
1165, -2.02948
1170, -11.3646
1175, 58.794
1180, 155.988
1185, 77.2583
1190, 15.1798
1195, -29.746
1200, -13.0009
1205, 64.5997
1210, 46.394
1215, 12.6843
1220, 13.4606
1225, 1.46344
1230, 21.4362
1235, 45.2912
1240, 7.77436
1245, 26.5877
1250, 54.7749
1255, 30.5269
1260, 70.9886
1265, 54.7307
1270, 81.9753
1275, -16.0917
1280, 65.2064
1285, 1.51789
1290, 3.86982
1295, 15.9457
1300, -12.357
1305, 29.3403
1310, 0.635258
1315, 40.0408
1320, -0.854046
1325, 49.8014
1330, 56.3287
1335, -14.258
1340, -22.9574
1345, 15.9694
1350, 14.728
1355, 46.3601
1360, 50.885
1365, 13.8848
1370, 49.6157
1375, 32.8759
1380, 1.86847
1385, 83.171
1390, 23.6702
1395, 57.2037
1400, -3.48536
1405, -7.6787
1410, 2.16084
1415, -20.1158
1420, -12.4914
1425, 62.2515
1430, 23.9467
1435, -5.74975
1440, 13.8052
1445, 66.1355
1450, 37.4868
1455, 30.8019
1460, 17.2488
1465, 25.5143
1470, 53.8045
1475, 52.1904
1480, 13.5393
1485, 71.6452
1490, -9.10201
1495, 6.41445
1500, 2.36221
1505, -3.81445
1510, -0.290844
1515, -9.14784
1520, 44.28
1525, -9.98002
1530, -8.83108
1535, 37.9906
1540, -30.8431
1545, -7.29432
1550, -24.9528
1555, -14.4981
1560, -54.1216
1565, 3.57634
1570, 149.201
1575, 893.371
1580, 922.913
1585, 189.225
1590, -68.118
1595, -52.8913
1600, -15.42
1605, -27.0225
1610, 20.7948
1615, 1.40914
1620, 41.2198
1625, -32.5909
1630, 15.2292
1635, 14.7823
1640, -2.61234
1645, -16.5797
1650, -5.21193